                              File name:	C:\Users\BTSUser\Desktop\Biomedica\Esb Asdhar Alonso OA+MUSICA1.tdf plat 1	
                          Frequency(Hz):	10.000000	
                          Total time(s):	40.897999	
                     Real total time(s):	40.900002	
                   Start of analysis(s):	0.000000	
              Range time of analysis(s):	40.900002	
                        Reference frame:	1	
  Trasversal COP displacement(mm)[m,sd]:	-37.517826	2.106676	
Longitudinal COP displacement(mm)[m,sd]:	54.462473	6.385096	
                       Radius(mm)[m,sd]:	5.829150	3.338453	
                         Max radius(mm):	17.365814	
                         Min radius(mm):	0.141804	
                   Trasversal range(mm):	10.411026	
                 Longitudinal range(mm):	30.707764	
                       Trace length(mm):	455.363724	
                            LFS (1/cm): 	4.265776	
                   Equivalent area(mmq):	577.013793	
                  Equivalent radius(mm):	13.552461	
                      Speed(mm/s)[m,sd]:	11.160876	7.535637	
       Inertial axises(mm)[asseX,asseY]:	6.204982	2.589545	
                    Regression angle:(°)	-60.231857	
                   Geographic area(mmq):	50.479360	
                     Tile dimension(mm):	5.000000	5.000000	
                        Setctors number:	6	
                    Sector amplitude(°):	60.000000	
                       Number of points:	6	
                   Fixed mean area(mmq):	48.269062	
                    Fixed sum area(mmq):	178414.881905	
                Variable mean area(mmq):	42.555950	
                 Variable sum area(mmq):	139638.292374	
                Sway density radius (mm)	2.500000	
                            Peak number 	61	
              Filter, cut-off frequency:	1.000000	
              Peak amplitude (s) [m,sd]:	1.291445	0.630248	
                   Peak time (s) [m,sd]:	0.680000	0.467159	
              Peak distance (mm) [m,sd]:	2.251840	2.197057	
Px spectrum, maximum peak and frequency (Hz):	114.870956	0.019531	
Py spectrum, maximum peak and frequency (Hz):	1220.735718	0.019531	
D spectrum, maximum peak and frequency (Hz):	96.137695	0.019531	
               Px spectrum, mean values:	0.885449	0.224022	
               Py spectrum, mean values:	8.134140	0.128380	
                D spectrum, mean values:	2.223604	0.309715	

      Px	      Py	
-42.630661	63.542023	
-42.848389	64.132874	
-41.987335	63.929749	
-41.269363	62.578217	
-40.744553	60.972046	
-40.505264	61.320007	
-41.078110	62.686676	
-41.327026	63.725006	
-41.327026	63.643677	
-41.580032	64.061462	
-41.900391	64.511658	
-41.833252	65.482849	
-42.316086	65.235748	
-42.637177	64.863617	
-42.393799	63.625214	
-41.598373	63.923096	
-41.713745	64.917084	
-41.750397	64.013245	
-40.916199	65.288788	
-39.977753	66.118805	
-40.509338	65.617615	
-40.255005	65.044464	
-40.225479	65.376251	
-39.930969	64.723846	
-40.167007	64.341370	
-39.298569	59.987457	
-38.639984	59.411926	
-38.677261	61.781952	
-38.969391	64.888489	
-39.251511	66.196320	
-39.890335	69.823730	
-38.891022	68.376709	
-38.301331	64.148651	
-37.680145	63.174683	
-37.385452	63.291351	
-37.525803	60.732849	
-37.814667	59.304321	
-38.866257	59.439636	
-38.673782	61.254517	
-38.989227	61.308594	
-39.120880	62.000671	
-39.201614	61.259399	
-38.867859	62.171326	
-38.823761	61.918671	
-38.218643	62.424316	
-37.813553	64.270844	
-37.451004	62.955627	
-37.356796	62.833405	
-37.351410	62.297180	
-37.433548	59.781982	
-37.861771	57.244141	
-37.506973	59.094482	
-37.971939	58.730530	
-39.427002	58.934021	
-40.618301	61.647400	
-40.448898	60.159485	
-40.304825	59.392395	
-40.686310	58.285583	
-40.451828	58.248596	
-40.322296	56.586182	
-38.696594	55.514221	
-37.591187	55.937683	
-37.336670	53.790070	
-37.583023	55.211395	
-38.068634	55.074341	
-38.768234	56.554443	
-38.958221	56.248322	
-38.416489	56.897766	
-38.311356	55.835571	
-37.797531	56.128967	
-37.244812	56.036041	
-37.663025	56.793457	
-37.439392	58.077606	
-37.840851	59.865875	
-38.430191	62.131897	
-38.496857	61.011322	
-38.388840	62.035370	
-37.312119	61.873474	
-36.074280	64.078308	
-37.272278	63.673035	
-39.619705	59.716400	
-40.502731	58.336365	
-38.897812	57.123596	
-39.869141	54.353119	
-40.778397	53.508118	
-42.116760	54.167847	
-43.423691	53.850616	
-44.247528	54.926392	
-44.167191	56.544250	
-44.203430	58.576874	
-42.958893	60.417603	
-41.784683	62.654480	
-41.311325	66.933533	
-41.117935	68.004486	
-40.289230	68.825409	
-39.641815	71.697906	
-38.903290	71.010315	
-39.644943	69.485779	
-38.781174	66.981567	
-39.631775	65.912537	
-39.899765	66.032715	
-40.389633	67.263580	
-40.329056	68.044556	
-39.885620	68.010315	
-39.433273	67.846710	
-39.114059	66.525391	
-38.960724	65.015747	
-38.840118	65.952789	
-38.980362	64.805267	
-38.866852	65.667847	
-38.934906	66.204529	
-38.662628	68.796143	
-38.233215	66.948212	
-38.592911	66.411987	
-38.417313	62.834381	
-38.588531	61.058289	
-38.045212	60.731567	
-37.790848	61.447754	
-37.710175	62.553711	
-37.838486	63.071014	
-38.906815	64.724060	
-39.458740	64.318237	
-39.562988	63.026520	
-39.970734	63.823059	
-39.714569	61.292725	
-40.175110	61.025177	
-40.464432	61.050659	
-40.471344	62.782806	
-40.140274	60.950500	
-40.361237	59.326477	
-40.143250	59.988586	
-40.742874	59.043335	
-40.167236	57.944824	
-39.083023	57.910217	
-38.985474	57.681396	
-38.618591	55.775574	
-39.368301	54.593323	
-39.867584	55.608826	
-39.901306	56.869232	
-40.195816	56.612701	
-39.735458	53.177399	
-40.053207	55.962616	
-40.349823	57.172729	
-40.381195	58.551758	
-40.110596	58.008270	
-40.039215	57.971344	
-39.509628	57.560272	
-37.498886	58.283905	
-38.529694	57.006165	
-39.930344	56.481842	
-39.737015	54.941711	
-39.586716	54.953186	
-38.037354	54.969116	
-37.653931	54.651550	
-36.966888	54.904480	
-35.607269	53.472107	
-36.015167	52.882172	
-36.809204	51.400879	
-37.693970	50.126129	
-37.975464	49.882568	
-38.067444	51.506866	
-38.173538	52.796844	
-38.710327	55.822601	
-38.524460	54.778046	
-38.818008	54.682556	
-38.533722	55.615692	
-38.257599	54.602509	
-37.054779	53.782959	
-36.252991	52.021820	
-35.779861	51.078918	
-34.675385	51.771606	
-34.593369	50.865021	
-33.962845	50.089508	
-34.837509	49.963287	
-35.720444	50.599823	
-35.600433	51.929260	
-35.979263	52.433502	
-36.160736	53.569397	
-36.709778	52.994324	
-36.585434	52.471375	
-36.188721	51.350098	
-35.428650	49.998566	
-36.508942	49.952271	
-36.473572	50.489014	
-36.258682	49.806030	
-36.148392	50.117584	
-36.696442	51.073456	
-36.533524	51.114197	
-36.986877	49.542328	
-37.137665	50.213562	
-37.618561	51.443848	
-38.127274	52.340668	
-38.468430	51.996582	
-38.317413	50.260620	
-37.914459	48.988922	
-37.967682	48.315582	
-37.436813	49.852356	
-36.813889	51.483734	
-36.083374	52.038208	
-35.744476	51.533813	
-36.364090	51.131256	
-36.145859	49.869415	
-36.583267	49.150848	
-36.910324	49.175903	
-36.712357	49.546295	
-36.886688	48.957703	
-36.267044	48.292358	
-35.942200	46.985626	
-35.947006	46.700928	
-35.834183	46.385529	
-35.686188	46.532928	
-36.156387	46.436249	
-36.406464	46.571075	
-35.619217	46.114868	
-36.448029	47.154663	
-37.248184	47.061615	
-37.620773	47.422729	
-37.809830	48.005341	
-37.272156	50.405884	
-36.177063	51.118103	
-36.410156	51.707855	
-36.082291	50.187347	
-36.204025	49.716797	
-36.046326	49.778870	
-35.321854	50.335419	
-35.107269	50.101959	
-35.680740	50.044159	
-36.123291	52.716064	
-36.035538	52.854004	
-35.886185	53.735931	
-35.682236	52.269348	
-35.389038	53.385681	
-35.622772	54.055084	
-35.405853	54.938904	
-34.553879	53.268860	
-34.325745	53.920105	
-34.300415	54.608185	
-34.808792	53.545868	
-34.925125	53.878021	
-34.670959	53.601624	
-35.629929	53.189667	
-35.157837	51.949493	
-34.726791	52.641449	
-33.857147	52.353546	
-33.969345	53.208710	
-33.836502	54.626678	
-33.993759	53.311066	
-34.103302	54.310608	
-34.803925	54.035767	
-34.309448	53.266479	
-34.147614	52.249146	
-34.289810	53.699707	
-34.183029	54.428864	
-34.480240	57.311066	
-34.769852	57.123962	
-34.753525	56.263550	
-34.534729	55.506714	
-34.768127	54.559814	
-35.368088	54.599060	
-35.199890	54.735077	
-35.256912	54.833679	
-35.400513	54.524231	
-34.920258	54.203705	
-35.190659	53.838287	
-34.808350	53.698212	
-34.869598	53.183502	
-34.666199	53.938324	
-34.772995	54.071136	
-34.854782	53.286011	
-34.915192	52.816284	
-34.741821	52.621521	
-34.741821	52.662231	
-35.092102	51.977722	
-35.453629	51.672607	
-35.905838	51.909546	
-36.544830	52.886963	
-36.148148	53.794586	
-36.521454	53.117554	
-36.153320	51.764648	
-35.219116	50.855225	
-34.466644	50.938354	
-34.220795	51.049225	
-34.868210	50.635864	
-35.270905	50.410614	
-35.809769	51.709412	
-36.199783	50.944427	
-37.077881	51.620209	
-37.514572	52.172241	
-36.713516	51.431396	
-35.920959	52.338867	
-35.046570	52.303619	
-34.320023	52.564911	
-34.335236	51.402191	
-34.181778	51.638916	
-33.992950	51.463257	
-34.385269	51.681976	
-35.230423	52.030975	
-35.907440	51.576904	
-36.502396	50.217072	
-36.635513	48.601746	
-36.437042	49.013794	
-36.471283	49.197876	
-36.164993	52.259918	
-35.954590	53.798462	
-35.249954	52.184021	
-34.608139	49.826813	
-34.587082	48.460083	
-35.228470	48.336334	
-36.074463	47.699524	
-36.803833	49.511932	
-36.782120	50.217499	
-37.596069	52.002014	
-37.213501	50.805969	
-36.904327	49.642426	
-36.307770	48.333069	
-35.923676	48.324432	
-36.022125	47.386932	
-35.956970	47.166931	
-36.436737	47.787598	
-36.588074	48.661682	
-36.675690	47.657104	
-36.377380	48.144653	
-35.882492	47.382294	
-36.027481	47.923096	
-35.967957	46.656677	
-35.679184	47.461243	
-35.648697	47.426941	
-35.731140	47.651306	
-36.056656	47.612946	
-36.331894	48.511292	
-36.693924	49.904877	
-36.694092	50.478851	
-36.561752	50.185791	
-36.747421	51.613068	
-37.063126	50.996765	
-37.320831	52.216888	
-36.694931	51.178650	
-36.243759	51.361206	
-35.622284	51.452332	
-35.802414	53.125885	
-35.712234	53.378174	
-35.792984	52.558044	
-36.263885	51.491547	
-36.374680	50.889191	
-36.098969	50.360901	
-35.946045	48.004517	
-35.882492	47.382294	
-36.494659	48.551971	
-36.377380	48.022583	
-36.822891	49.601685	
-36.933365	50.233307	
-36.932770	49.330750	
-36.296005	48.185333	
-35.795334	45.986450	
-35.985153	45.214447	
-36.177628	45.808685	
-36.183411	44.599426	
-36.335022	45.397522	
-37.071930	45.886444	
-37.246368	46.741791	
-36.995834	47.704681	
-37.572540	47.605682	
-37.671524	47.330414	
-37.617508	46.505920	
-37.696167	46.105835	
-38.021988	46.067474	
-37.895065	46.556458	
-38.004013	46.247498	
-38.319565	45.439240	
-39.199783	44.829071	
-39.614548	44.623505	
-38.940933	45.601501	
-38.283447	45.836273	
-37.935135	45.694305	
-37.743942	45.714111	
-37.486313	44.962952	
-37.313995	42.234528	
-37.512360	41.945038	
-37.420364	41.944489	
-36.973984	41.273499	
-37.077682	40.990143	
-38.281418	43.211792	
-39.287125	44.842773	
-39.482193	47.048645	
-38.829895	49.112610	
-38.610764	50.163757	
-37.486481	51.211426	
-37.187271	52.698578	
-37.422119	54.567108	
-38.174744	52.835449	
-37.373489	50.537933	
-36.403900	50.639038	
-35.849945	50.765991	
-35.784698	50.548920	
-35.398041	50.083984	
-35.707031	48.334686	
-36.606781	48.872498	
-36.972855	48.509644	
-38.428696	47.727386	
-37.193756	47.334381	
-36.715988	47.417328	
-35.860260	47.743286	
-35.643890	47.752563	
-35.537842	47.655243	
-35.801193	47.300995	
-36.957336	48.636444	
-37.943848	50.542664	
-38.322830	50.755859	
-39.106537	52.428314	
